# Wavemumber(cm^-1)  phase  N  K
100.3	0.1477	5.416	2.616
102.2	0.1522	5.212	2.477
104.1	0.1494	5.141	2.319
106.1	0.146	5.196	2.299
108	0.1477	5.218	2.368
109.9	0.1514	5.141	2.367
111.9	0.1524	5.084	2.323
113.8	0.1531	5.089	2.346
115.7	0.158	5.067	2.441
117.6	0.1666	4.94	2.488
119.6	0.1711	4.762	2.35
121.5	0.1657	4.703	2.152
123.4	0.1572	4.809	2.104
125.4	0.1548	4.922	2.185
127.3	0.1588	4.941	2.297
129.2	0.1653	4.882	2.374
131.1	0.1712	4.799	2.404
133.1	0.1776	4.728	2.46
135	0.186	4.608	2.485
136.9	0.1911	4.465	2.38
138.8	0.1895	4.412	2.261
140.8	0.187	4.438	2.244
142.7	0.1881	4.437	2.268
144.6	0.1907	4.395	2.262
146.6	0.1929	4.362	2.259
148.5	0.1968	4.328	2.291
150.4	0.2029	4.249	2.297
152.3	0.2072	4.155	2.234
154.3	0.2079	4.102	2.163
156.2	0.2078	4.079	2.123
158.1	0.2084	4.049	2.089
160.1	0.2085	4.013	2.036
162	0.2069	3.992	1.978
163.9	0.2046	3.989	1.936
165.8	0.2031	3.99	1.913
167.8	0.2022	3.978	1.883
169.7	0.2005	3.969	1.846
171.6	0.199	3.972	1.827
173.6	0.1983	3.965	1.807
175.5	0.1968	3.953	1.771
177.4	0.1948	3.96	1.75
179.3	0.1939	3.964	1.742
181.3	0.193	3.952	1.717
183.2	0.1912	3.953	1.693
185.1	0.1899	3.964	1.688
187.1	0.1899	3.961	1.685
189	0.19	3.949	1.672
190.9	0.1896	3.938	1.655
192.8	0.1888	3.928	1.634
194.8	0.1873	3.923	1.61
196.7	0.1856	3.925	1.589
198.6	0.1838	3.928	1.571
200.6	0.1822	3.932	1.554
202.5	0.1804	3.935	1.536
204.4	0.1781	3.942	1.515
206.3	0.1755	3.957	1.499
208.3	0.1735	3.978	1.495
210.2	0.1726	3.995	1.501
212.1	0.173	4.003	1.512
214.1	0.174	3.995	1.518
216	0.1742	3.974	1.5
217.9	0.1721	3.966	1.468
219.8	0.1692	3.983	1.449
221.8	0.1676	4.004	1.45
223.7	0.1674	4.006	1.448
225.6	0.166	3.99	1.419
227.6	0.162	3.991	1.374
229.5	0.1565	4.02	1.337
231.4	0.1512	4.06	1.31
233.3	0.1462	4.104	1.289
235.3	0.1415	4.153	1.272
237.2	0.1368	4.202	1.255
239.1	0.1316	4.261	1.236
241.1	0.1264	4.336	1.226
243	0.1216	4.419	1.224
244.9	0.117	4.51	1.225
246.8	0.1125	4.617	1.233
248.8	0.1085	4.742	1.256
250.7	0.105	4.877	1.288
252.6	0.1014	5.035	1.329
254.6	0.09803	5.229	1.39
256.5	0.09492	5.463	1.477
258.4	0.0917	5.757	1.595
260.3	0.08854	6.167	1.785
262.3	0.08719	6.773	2.166
264.2	0.09199	7.642	3.088
266.1	0.1107	8.295	5.369
268.1	0.1489	6.502	8.446
270	0.2032	3.179	8.656
271.9	0.2637	1.502	7.235
273.8	0.3236	0.8814	6
275.8	0.3823	0.6118	5.097
277.7	0.4419	0.4765	4.403
279.6	0.5046	0.4043	3.839
281.6	0.5731	0.3653	3.357
283.5	0.651	0.3495	2.926
285.4	0.7436	0.3548	2.521
287.3	0.8557	0.4019	2.13
289.3	0.9791	0.5308	1.754
291.2	1.074	0.7514	1.396
293.1	1.07	1.018	1.061
295.1	0.9239	1.252	0.7995
297	0.7112	1.457	0.6884
298.9	0.5432	1.661	0.6633
300.8	0.4412	1.831	0.6581
302.8	0.3793	1.966	0.6568
304.7	0.3377	2.071	0.652
306.6	0.3055	2.156	0.6401
308.6	0.2779	2.235	0.626
310.5	0.2547	2.31	0.6137
312.4	0.2351	2.381	0.6026
314.3	0.2187	2.45	0.5949
316.3	0.206	2.519	0.5953
318.2	0.1979	2.583	0.6056
320.1	0.1943	2.636	0.6235
322.1	0.1935	2.671	0.6413
324	0.1927	2.689	0.6491
325.9	0.1897	2.704	0.6464
327.8	0.1851	2.724	0.6391
329.8	0.1798	2.746	0.6303
331.7	0.1744	2.772	0.6229
333.6	0.1699	2.799	0.6191
335.6	0.1659	2.822	0.6146
337.5	0.1619	2.846	0.61
339.4	0.1589	2.874	0.6115
341.3	0.1574	2.893	0.615
343.3	0.1553	2.903	0.6104
345.2	0.1514	2.916	0.5999
347.1	0.1472	2.942	0.5939
349.1	0.1449	2.97	0.5962
351	0.1438	2.988	0.6
352.9	0.1422	2.999	0.5978
354.8	0.1395	3.014	0.5922
356.8	0.137	3.038	0.5913
358.7	0.1357	3.06	0.5952
360.6	0.1347	3.075	0.5971
362.6	0.1327	3.091	0.5949
364.5	0.1305	3.118	0.5956
366.4	0.1302	3.155	0.6107
368.3	0.1333	3.183	0.6394
370.3	0.1376	3.188	0.6651
372.2	0.1408	3.185	0.6805
374.1	0.1429	3.188	0.6935
376.1	0.1452	3.193	0.7094
378	0.1484	3.197	0.7288
379.9	0.1524	3.195	0.7501
381.8	0.1569	3.184	0.7698
383.8	0.161	3.163	0.7808
385.7	0.1632	3.141	0.7799
387.6	0.1639	3.13	0.7769
389.6	0.1649	3.125	0.7798
391.5	0.1665	3.114	0.7823
393.4	0.1674	3.098	0.7774
395.3	0.1671	3.089	0.7708
397.3	0.1672	3.087	0.7696
399.2	0.1683	3.082	0.773
401.1	0.1704	3.07	0.777
403	0.1725	3.049	0.7755
405	0.1729	3.021	0.7603
406.9	0.1704	2.999	0.7341
408.8	0.1654	2.99	0.7045
410.8	0.1595	2.995	0.6782
412.7	0.1544	3.009	0.6609
414.6	0.1509	3.026	0.6524
416.5	0.1491	3.038	0.6501
418.5	0.1486	3.046	0.6512
420.4	0.1487	3.047	0.6523
422.3	0.1488	3.042	0.6505
424.3	0.1482	3.035	0.6438
426.2	0.1466	3.03	0.6335
428.1	0.1446	3.029	0.6234
430	0.1427	3.03	0.6147
432	0.1408	3.029	0.6051
433.9	0.1386	3.028	0.5944
435.8	0.1361	3.029	0.5831
437.8	0.1332	3.03	0.5697
439.7	0.1299	3.035	0.5567
441.6	0.1269	3.043	0.5461
443.5	0.1239	3.049	0.5344
445.5	0.1206	3.06	0.5231
447.4	0.1182	3.078	0.5191
449.3	0.1176	3.092	0.5217
451.3	0.1173	3.094	0.521
453.2	0.1159	3.095	0.5146
455.1	0.1141	3.105	0.5099
457	0.1132	3.117	0.5103
459	0.1129	3.122	0.5105
460.9	0.1118	3.123	0.506
462.8	0.11	3.132	0.5006
464.8	0.1091	3.15	0.5027
466.7	0.1101	3.165	0.5131
468.6	0.1119	3.167	0.5226
470.5	0.1132	3.166	0.5289
472.5	0.1144	3.167	0.5353
474.4	0.1156	3.163	0.54
476.3	0.1165	3.161	0.5436
478.3	0.1179	3.16	0.5501
480.2	0.1196	3.152	0.5551
482.1	0.1206	3.139	0.555
484	0.1205	3.127	0.5497
486	0.1195	3.118	0.5415
487.9	0.118	3.113	0.5322
489.8	0.1165	3.112	0.5244
491.8	0.1154	3.112	0.5188
493.7	0.1143	3.107	0.5116
495.6	0.1124	3.102	0.5009
497.5	0.1099	3.099	0.4875
499.5	0.1062	3.097	0.4694
501.4	0.1005	3.101	0.4444