# Wavelength(Î¼m) Extinction_cofficient
0.20664	2.3489
0.20702	2.3527
0.2074	2.3566
0.20779	2.3604
0.20817	2.3643
0.20856	2.3681
0.20894	2.372
0.20933	2.3759
0.20972	2.3799
0.21011	2.3839
0.21051	2.3878
0.2109	2.3919
0.2113	2.3959
0.2117	2.3999
0.21209	2.404
0.2125	2.4081
0.2129	2.4123
0.2133	2.4164
0.21371	2.4206
0.21411	2.4248
0.21452	2.429
0.21493	2.4333
0.21534	2.4376
0.21576	2.4419
0.21617	2.4462
0.21659	2.4506
0.217	2.455
0.21742	2.4594
0.21785	2.4639
0.21827	2.4684
0.21869	2.4729
0.21912	2.4774
0.21955	2.482
0.21998	2.4866
0.22041	2.4913
0.22084	2.4959
0.22127	2.5007
0.22171	2.5054
0.22215	2.5102
0.22259	2.515
0.22303	2.5198
0.22347	2.5247
0.22392	2.5297
0.22436	2.5346
0.22481	2.5396
0.22526	2.5447
0.22571	2.5497
0.22617	2.5549
0.22662	2.56
0.22708	2.5652
0.22754	2.5705
0.228	2.5758
0.22846	2.5811
0.22893	2.5865
0.2294	2.5919
0.22986	2.5974
0.23034	2.603
0.23081	2.6085
0.23128	2.6142
0.23176	2.6199
0.23224	2.6256
0.23272	2.6314
0.2332	2.6372
0.23369	2.6431
0.23417	2.6491
0.23466	2.6551
0.23515	2.6612
0.23564	2.6673
0.23614	2.6735
0.23663	2.6798
0.23713	2.6861
0.23763	2.6925
0.23814	2.699
0.23864	2.7056
0.23915	2.7122
0.23966	2.7189
0.24017	2.7256
0.24069	2.7325
0.2412	2.7394
0.24172	2.7464
0.24224	2.7535
0.24276	2.7607
0.24329	2.7679
0.24382	2.7753
0.24434	2.7827
0.24488	2.7903
0.24541	2.7979
0.24595	2.8057
0.24649	2.8135
0.24703	2.8215
0.24757	2.8295
0.24812	2.8377
0.24867	2.846
0.24922	2.8544
0.24977	2.8629
0.25033	2.8716
0.25088	2.8804
0.25145	2.8893
0.25201	2.8983
0.25257	2.9075
0.25314	2.9169
0.25371	2.9264
0.25429	2.936
0.25486	2.9458
0.25544	2.9558
0.25602	2.9659
0.25661	2.9762
0.25719	2.9867
0.25778	2.9974
0.25838	3.0082
0.25897	3.0193
0.25957	3.0305
0.26017	3.042
0.26077	3.0537
0.26138	3.0656
0.26199	3.0777
0.2626	3.0901
0.26321	3.1027
0.26383	3.1156
0.26445	3.1287
0.26507	3.1421
0.2657	3.1558
0.26633	3.1698
0.26696	3.1841
0.2676	3.1986
0.26823	3.2135
0.26887	3.2288
0.26952	3.2443
0.27017	3.2602
0.27082	3.2764
0.27147	3.2931
0.27213	3.3101
0.27279	3.3274
0.27345	3.3452
0.27412	3.3634
0.27479	3.382
0.27546	3.401
0.27614	3.4204
0.27681	3.4403
0.2775	3.4606
0.27818	3.4814
0.27887	3.5026
0.27957	3.5243
0.28026	3.5464
0.28096	3.5689
0.28167	3.5919
0.28237	3.6153
0.28308	3.6391
0.2838	3.6633
0.28452	3.6879
0.28524	3.7127
0.28596	3.7378
0.28669	3.763
0.28742	3.7884
0.28816	3.8138
0.2889	3.8392
0.28964	3.8643
0.29039	3.8891
0.29114	3.9134
0.2919	3.937
0.29266	3.9596
0.29342	3.9811
0.29419	4.0011
0.29496	4.0194
0.29574	4.0356
0.29652	4.0494
0.2973	4.0603
0.29809	4.0681
0.29888	4.0723
0.29968	4.0726
0.30048	4.0686
0.30128	4.0601
0.30209	4.0468
0.3029	4.0287
0.30372	4.0058
0.30454	3.978
0.30537	3.9458
0.3062	3.9095
0.30704	3.8694
0.30788	3.8264
0.30872	3.7809
0.30957	3.7337
0.31043	3.6855
0.31129	3.6371
0.31215	3.5889
0.31302	3.5418
0.31389	3.496
0.31477	3.4522
0.31565	3.4104
0.31654	3.3711
0.31744	3.3342
0.31833	3.2999
0.31924	3.2681
0.32015	3.2387
0.32106	3.2116
0.32198	3.1867
0.3229	3.1637
0.32383	3.1425
0.32477	3.1229
0.32571	3.1045
0.32665	3.0873
0.3276	3.071
0.32856	3.0554
0.32952	3.0403
0.33049	3.0255
0.33147	3.011
0.33245	2.9965
0.33343	2.9819
0.33442	2.9671
0.33542	2.952
0.33642	2.9366
0.33743	2.9207
0.33845	2.9043
0.33947	2.8874
0.3405	2.87
0.34153	2.8519
0.34257	2.8332
0.34362	2.814
0.34467	2.7942
0.34573	2.7739
0.34679	2.7531
0.34787	2.7319
0.34895	2.7103
0.35003	2.6883
0.35112	2.6662
0.35222	2.6438
0.35333	2.6214
0.35444	2.599
0.35556	2.5767
0.35669	2.5546
0.35783	2.5328
0.35897	2.5113
0.36012	2.4903
0.36127	2.4698
0.36244	2.4498
0.36361	2.4306
0.36479	2.412
0.36598	2.3942
0.36717	2.3771
0.36837	2.3609
0.36958	2.3456
0.3708	2.3311
0.37203	2.3174
0.37326	2.3047
0.3745	2.2928
0.37576	2.2817
0.37701	2.2715
0.37828	2.262
0.37956	2.2534
0.38084	2.2455
0.38214	2.2383
0.38344	2.2318
0.38475	2.2259
0.38607	2.2206
0.3874	2.2159
0.38874	2.2118
0.39009	2.2081
0.39145	2.2049
0.39281	2.2021
0.39419	2.1997
0.39558	2.1976
0.39697	2.1958
0.39838	2.1943
0.39979	2.1931
0.40122	2.1921
0.40266	2.1912
0.4041	2.1906
0.40556	2.19
0.40703	2.1896
0.40851	2.1893
0.40999	2.1891
0.41149	2.1888
0.413	2.1887
0.41453	2.1885
0.41606	2.1883
0.4176	2.1881
0.41916	2.1879
0.42073	2.1876
0.42231	2.1872
0.4239	2.1868
0.4255	2.1862
0.42712	2.1856
0.42875	2.1848
0.43039	2.1839
0.43204	2.1828
0.43371	2.1816
0.43538	2.1803
0.43708	2.1787
0.43878	2.177
0.4405	2.1751
0.44223	2.173
0.44398	2.1707
0.44574	2.1681
0.44751	2.1654
0.4493	2.1624
0.4511	2.1591
0.45291	2.1556
0.45475	2.1518
0.45659	2.1478
0.45845	2.1435
0.46033	2.1389
0.46222	2.1341
0.46413	2.1289
0.46605	2.1234
0.46799	2.1176
0.46994	2.1115
0.47192	2.1051
0.4739	2.0983
0.47591	2.0913
0.47793	2.0838
0.47997	2.0761
0.48203	2.0679
0.4841	2.0595
0.48619	2.0506
0.4883	2.0415
0.49043	2.0319
0.49258	2.0221
0.49475	2.0118
0.49693	2.0013
0.49914	1.9904
0.50136	1.9791
0.50361	1.9676
0.50587	1.9557
0.50816	1.9436
0.51046	1.9312
0.51279	1.9186
0.51514	1.9058
0.51751	1.8928
0.5199	1.8797
0.52231	1.8666
0.52475	1.8535
0.52721	1.8404
0.52969	1.8276
0.5322	1.8149
0.53473	1.8027
0.53728	1.791
0.53986	1.7799
0.54246	1.7696
0.54509	1.7604
0.54775	1.7523
0.55043	1.7458
0.55313	1.741
0.55587	1.7383
0.55863	1.7379
0.56142	1.7401
0.56423	1.7454
0.56708	1.7539
0.56995	1.7658
0.57285	1.7811
0.57579	1.7994
0.57875	1.82
0.58174	1.8415
0.58476	1.8618
0.58782	1.8779
0.59091	1.8864
0.59403	1.8836
0.59718	1.8661
0.60037	1.8323
0.60359	1.7822
0.60685	1.718
0.61014	1.6435
0.61347	1.563
0.61683	1.4808
0.62023	1.4001
0.62367	1.3232
0.62715	1.2515
0.63066	1.1855
0.63422	1.1252
0.63782	1.0703
0.64145	1.0205
0.64513	0.97516
0.64885	0.93387
0.65262	0.89611
0.65643	0.86147
0.66028	0.82955
0.66418	0.80004
0.66812	0.77264
0.67211	0.74711
0.67615	0.72324
0.68024	0.70084
0.68438	0.67976
0.68857	0.65987
0.69281	0.64105
0.69711	0.6232
0.70145	0.60624
0.70585	0.59008
0.71031	0.57467
0.71483	0.55993
0.7194	0.54583
0.72403	0.53232
0.72872	0.51935
0.73347	0.50688
0.73828	0.49489
0.74316	0.48334
0.7481	0.47221
0.75311	0.46148
0.75819	0.45111
0.76333	0.44109
0.76855	0.4314
0.77384	0.42203
0.7792	0.41295
0.78463	0.40416
0.79014	0.39564
0.79573	0.38737
0.8014	0.37935
0.80715	0.37157
0.81298	0.36401
0.8189	0.35666
0.82491	0.34953
0.831	0.3426
0.83719	0.33587
0.84346	0.32935
0.84984	0.32315
0.85631	0.31687
0.86287	0.31074
0.86954	0.30476
0.87632	0.29892
0.8832	0.29323
0.89019	0.28766
0.89729	0.28223
0.9045	0.27692
0.91184	0.27173
0.91929	0.26666
0.92686	0.26169
0.93456	0.25684
0.94239	0.25209
0.95035	0.24744
0.95845	0.24289
0.96669	0.23843
0.97507	0.23407
0.98359	0.22979
0.99227	0.2256
1.0011	0.22149
1.0101	0.21746
1.0192	0.21351
1.0286	0.20964
1.0381	0.20583
1.0477	0.2021
1.0576	0.19844
1.0676	0.19484
1.0778	0.19131
1.0883	0.18785
1.0989	0.18444
1.1097	0.1811
1.1208	0.17781
1.1321	0.17458
1.1436	0.1714
1.1553	0.16828
1.1673	0.16521
1.1796	0.1622
1.1921	0.15923
1.2048	0.15631
1.2179	0.15344
1.2312	0.15062
1.2448	0.14784
1.2588	0.14511
1.273	0.14243
1.2876	0.13979
1.3025	0.13719
1.3177	0.13464
1.3334	0.13213
1.3494	0.12966
1.3657	0.12724
1.3825	0.12486
1.3997	0.12252
1.4174	0.12023
1.4355	0.11798
1.454	0.11578
1.4731	0.11363
1.4926	0.11152
1.5127	0.10947
1.5333	0.10747
1.5545	0.10554
1.5763	0.10367
1.5987	0.10189
1.6217	0.1002
1.6454	0.09862
1.6699	0.09722
1.695	0.0961
1.7209	0.09706
1.7477	0.09467
1.7753	0.09278
1.8037	0.0909
1.8331	0.08904
1.8635	0.0872
1.8949	0.08537
1.9274	0.08357
1.961	0.08178
1.9957	0.08001
2.0318	0.07826
2.0692	0.07653
2.1079	0.07481
2.1482	0.07311
2.19	0.07143
2.2335	0.06976
2.2788	0.06811
2.3259	0.06648
2.375	0.06486
2.4262	0.06325
2.4797	0.06166
