# Wavelength(Î¼m) Extinction_cofficient
0.36	2.39
0.362	2.379
0.363	2.367
0.365	2.356
0.366	2.344
0.368	2.332
0.37	2.32
0.371	2.308
0.373	2.296
0.374	2.284
0.376	2.272
0.378	2.26
0.379	2.249
0.381	2.238
0.382	2.226
0.384	2.216
0.386	2.205
0.387	2.195
0.389	2.185
0.39	2.175
0.392	2.166
0.394	2.157
0.395	2.149
0.397	2.141
0.398	2.133
0.4	2.126
0.402	2.119
0.403	2.112
0.405	2.106
0.406	2.1
0.408	2.095
0.41	2.09
0.411	2.085
0.413	2.081
0.414	2.077
0.416	2.073
0.418	2.07
0.419	2.067
0.421	2.064
0.422	2.062
0.424	2.059
0.426	2.057
0.427	2.055
0.429	2.054
0.43	2.052
0.432	2.05
0.434	2.048
0.435	2.047
0.437	2.045
0.438	2.043
0.44	2.041
0.442	2.039
0.443	2.037
0.445	2.034
0.446	2.032
0.448	2.029
0.45	2.025
0.451	2.022
0.453	2.018
0.454	2.014
0.456	2.009
0.458	2.003
0.459	1.998
0.461	1.992
0.462	1.985
0.464	1.978
0.466	1.97
0.467	1.962
0.469	1.954
0.47	1.944
0.472	1.935
0.474	1.925
0.475	1.914
0.477	1.903
0.478	1.892
0.48	1.88
0.482	1.867
0.483	1.854
0.485	1.841
0.486	1.828
0.488	1.814
0.49	1.8
0.491	1.786
0.493	1.771
0.494	1.756
0.496	1.741
0.498	1.726
0.499	1.711
0.501	1.696
0.502	1.68
0.504	1.665
0.506	1.65
0.507	1.635
0.509	1.62
0.51	1.605
0.512	1.59
0.514	1.576
0.515	1.561
0.517	1.547
0.518	1.533
0.52	1.52
0.522	1.507
0.523	1.494
0.525	1.482
0.526	1.47
0.528	1.459
0.53	1.448
0.531	1.438
0.532	1.433
0.533	1.428
0.534	1.419
0.536	1.411
0.538	1.403
0.539	1.397
0.541	1.39
0.542	1.385
0.544	1.38
0.546	1.377
0.547	1.374
0.549	1.372
0.55	1.371
0.552	1.37
0.554	1.371
0.555	1.372
0.557	1.374
0.558	1.377
0.56	1.38
0.562	1.383
0.563	1.387
0.565	1.39
0.566	1.393
0.568	1.395
0.57	1.396
0.571	1.395
0.573	1.392
0.574	1.386
0.576	1.378
0.578	1.366
0.579	1.352
0.581	1.333
0.582	1.312
0.584	1.287
0.586	1.26
0.587	1.23
0.589	1.199
0.59	1.166
0.592	1.132
0.594	1.099
0.595	1.065
0.597	1.032
0.598	1
0.6	0.969
0.602	0.939
0.603	0.91
0.605	0.883
0.606	0.857
0.608	0.833
0.61	0.81
0.611	0.788
0.613	0.768
0.614	0.748
0.616	0.73
0.618	0.713
0.619	0.697
0.621	0.682
0.622	0.667
0.624	0.654
0.626	0.641
0.627	0.628
0.629	0.617
0.63	0.606
0.632	0.595
0.634	0.585
0.635	0.576
0.637	0.567
0.638	0.558
0.64	0.55
0.642	0.542
0.643	0.534
0.645	0.527
0.646	0.52
0.648	0.514
0.65	0.507
0.651	0.501
0.653	0.496
0.654	0.49
0.656	0.485
0.658	0.48
0.659	0.475
0.661	0.47
0.662	0.466
0.664	0.461
0.666	0.457
0.667	0.454
0.669	0.45
0.67	0.447
0.672	0.443
0.674	0.44
0.675	0.438
0.677	0.435
0.678	0.433
0.68	0.43
0.682	0.428
0.683	0.427
0.685	0.425
0.686	0.424
0.688	0.423
0.69	0.422
0.691	0.422
0.693	0.422
0.694	0.422
0.696	0.422
0.698	0.423
0.699	0.424
0.701	0.426
0.702	0.428
0.704	0.43
0.706	0.433
0.707	0.436
0.709	0.44
0.71	0.445
0.712	0.45
0.714	0.457
0.715	0.463
0.717	0.471
0.718	0.48
0.72	0.49
0.722	0.502
0.723	0.514
0.725	0.528
0.726	0.544
0.728	0.562
0.73	0.582
0.731	0.605
0.733	0.63
0.734	0.658
0.736	0.689
0.738	0.723
0.739	0.761
0.741	0.802
0.742	0.847
0.744	0.895
0.746	0.945
0.747	0.995
0.749	1.046
0.75	1.093
0.752	1.135
0.754	1.168
0.755	1.188
0.757	1.195
0.758	1.187
0.76	1.162
0.762	1.123
0.763	1.073
0.765	1.014
0.766	0.95
0.768	0.884
0.77	0.819
0.771	0.757
0.773	0.698
0.774	0.645
0.776	0.596
0.778	0.552
0.779	0.512
0.781	0.477
0.782	0.445
0.784	0.417
0.786	0.392
0.787	0.369
0.789	0.349
0.79	0.331
0.792	0.315
0.794	0.3
0.795	0.287
0.797	0.274
0.798	0.263
0.8	0.253
0.802	0.244
0.803	0.236
0.805	0.228
0.806	0.22
0.808	0.214
0.81	0.208
0.811	0.202
0.813	0.196
0.814	0.191
0.816	0.187
0.818	0.182
0.819	0.178
0.821	0.174
0.822	0.17
0.824	0.167
0.826	0.163
0.827	0.16
0.829	0.157
0.83	0.154
0.832	0.151
0.834	0.149
0.835	0.146
0.837	0.144
0.838	0.141
0.84	0.139
0.842	0.137
0.843	0.135
0.845	0.133
0.846	0.131
0.848	0.129
0.85	0.127
0.851	0.125
0.853	0.124
0.854	0.122
0.856	0.12
0.858	0.119
0.859	0.117
0.861	0.116
0.862	0.114
0.864	0.113
0.866	0.111
0.867	0.11
0.869	0.109
0.87	0.107
0.872	0.106
0.874	0.105
0.875	0.104
0.877	0.103
0.878	0.101
0.88	0.1
0.882	0.099
0.883	0.098
0.885	0.097
0.886	0.096
0.888	0.095
0.89	0.094
0.891	0.093
0.893	0.092
0.894	0.091
0.896	0.09
0.898	0.089
0.899	0.088
0.901	0.087
0.902	0.086
0.904	0.085
0.906	0.085
0.907	0.084
0.909	0.083
0.91	0.082
0.912	0.081
0.914	0.08
0.915	0.08
0.917	0.079
0.918	0.078
0.92	0.077
0.922	0.077
0.923	0.076
0.925	0.075
0.926	0.074
0.928	0.074
0.93	0.073
0.931	0.072
0.933	0.072
0.934	0.071
0.936	0.07
0.938	0.07
0.939	0.069
0.941	0.069
0.942	0.068
0.944	0.067
0.946	0.067
0.947	0.066
0.949	0.066
0.95	0.065
0.952	0.064
0.954	0.064
0.955	0.063
0.957	0.063
0.958	0.062
0.96	0.062
0.962	0.061
0.963	0.061
0.965	0.06
0.966	0.06
0.968	0.059
0.97	0.059
0.971	0.058
0.973	0.058
0.974	0.057
0.976	0.057
0.978	0.056
0.979	0.056
0.981	0.055
0.982	0.055
0.984	0.054
0.986	0.054
0.987	0.054
0.989	0.053
0.99	0.053
0.992	0.052
0.994	0.052
0.995	0.052
0.997	0.051
0.998	0.051
1	0.05