# Wavelength(Î¼m) Extinction_cofficient
0.36	3.308
0.362	3.341
0.363	3.372
0.365	3.402
0.366	3.431
0.368	3.458
0.37	3.484
0.371	3.508
0.373	3.53
0.374	3.55
0.376	3.567
0.378	3.582
0.379	3.594
0.381	3.603
0.382	3.61
0.384	3.612
0.386	3.612
0.387	3.608
0.389	3.6
0.39	3.589
0.392	3.575
0.394	3.557
0.395	3.536
0.397	3.511
0.398	3.484
0.4	3.454
0.402	3.422
0.403	3.387
0.405	3.351
0.406	3.314
0.408	3.275
0.41	3.236
0.411	3.196
0.413	3.156
0.414	3.117
0.416	3.078
0.418	3.039
0.419	3.002
0.421	2.966
0.422	2.931
0.424	2.898
0.426	2.866
0.427	2.835
0.429	2.806
0.43	2.779
0.432	2.753
0.434	2.729
0.435	2.707
0.437	2.686
0.438	2.666
0.44	2.648
0.442	2.631
0.443	2.616
0.445	2.601
0.446	2.588
0.448	2.576
0.45	2.564
0.451	2.554
0.453	2.544
0.454	2.535
0.456	2.526
0.458	2.518
0.459	2.511
0.461	2.504
0.462	2.497
0.464	2.491
0.466	2.484
0.467	2.478
0.469	2.472
0.47	2.467
0.472	2.461
0.474	2.455
0.475	2.449
0.477	2.443
0.478	2.437
0.48	2.431
0.482	2.424
0.483	2.418
0.485	2.411
0.486	2.404
0.488	2.397
0.49	2.389
0.491	2.382
0.493	2.374
0.494	2.366
0.496	2.358
0.498	2.349
0.499	2.34
0.501	2.331
0.502	2.322
0.504	2.312
0.506	2.303
0.507	2.293
0.509	2.283
0.51	2.272
0.512	2.262
0.514	2.251
0.515	2.24
0.517	2.229
0.518	2.218
0.52	2.207
0.522	2.195
0.523	2.184
0.525	2.172
0.526	2.16
0.528	2.148
0.53	2.136
0.531	2.124
0.532	2.117
0.533	2.112
0.534	2.1
0.536	2.087
0.538	2.075
0.539	2.063
0.541	2.05
0.542	2.037
0.544	2.025
0.546	2.012
0.547	1.999
0.549	1.987
0.55	1.974
0.552	1.961
0.554	1.948
0.555	1.936
0.557	1.923
0.558	1.91
0.56	1.897
0.562	1.885
0.563	1.872
0.565	1.859
0.566	1.847
0.568	1.834
0.57	1.822
0.571	1.809
0.573	1.797
0.574	1.785
0.576	1.773
0.578	1.761
0.579	1.749
0.581	1.737
0.582	1.725
0.584	1.714
0.586	1.702
0.587	1.691
0.589	1.68
0.59	1.669
0.592	1.658
0.594	1.647
0.595	1.637
0.597	1.627
0.598	1.616
0.6	1.607
0.602	1.597
0.603	1.587
0.605	1.577
0.606	1.568
0.608	1.559
0.61	1.55
0.611	1.541
0.613	1.532
0.614	1.524
0.616	1.515
0.618	1.507
0.619	1.498
0.621	1.49
0.622	1.482
0.624	1.473
0.626	1.465
0.627	1.457
0.629	1.449
0.63	1.44
0.632	1.432
0.634	1.423
0.635	1.415
0.637	1.406
0.638	1.397
0.64	1.388
0.642	1.378
0.643	1.369
0.645	1.358
0.646	1.348
0.648	1.337
0.65	1.326
0.651	1.315
0.653	1.303
0.654	1.29
0.656	1.277
0.658	1.264
0.659	1.25
0.661	1.235
0.662	1.22
0.664	1.205
0.666	1.189
0.667	1.173
0.669	1.156
0.67	1.138
0.672	1.12
0.674	1.102
0.675	1.084
0.677	1.065
0.678	1.046
0.68	1.026
0.682	1.007
0.683	0.987
0.685	0.967
0.686	0.948
0.688	0.928
0.69	0.909
0.691	0.889
0.693	0.87
0.694	0.851
0.696	0.833
0.698	0.815
0.699	0.797
0.701	0.78
0.702	0.763
0.704	0.747
0.706	0.732
0.707	0.717
0.709	0.703
0.71	0.689
0.712	0.676
0.714	0.664
0.715	0.652
0.717	0.641
0.718	0.631
0.72	0.622
0.722	0.613
0.723	0.605
0.725	0.598
0.726	0.591
0.728	0.585
0.73	0.58
0.731	0.575
0.733	0.571
0.734	0.567
0.736	0.565
0.738	0.563
0.739	0.561
0.741	0.56
0.742	0.56
0.744	0.56
0.746	0.561
0.747	0.563
0.749	0.565
0.75	0.568
0.752	0.571
0.754	0.574
0.755	0.579
0.757	0.583
0.758	0.589
0.76	0.594
0.762	0.6
0.763	0.607
0.765	0.614
0.766	0.621
0.768	0.629
0.77	0.637
0.771	0.646
0.773	0.654
0.774	0.663
0.776	0.671
0.778	0.68
0.779	0.688
0.781	0.696
0.782	0.704
0.784	0.711
0.786	0.717
0.787	0.723
0.789	0.728
0.79	0.731
0.792	0.734
0.794	0.735
0.795	0.734
0.797	0.732
0.798	0.728
0.8	0.722
0.802	0.713
0.803	0.702
0.805	0.689
0.806	0.673
0.808	0.656
0.81	0.636
0.811	0.615
0.813	0.591
0.814	0.567
0.816	0.541
0.818	0.514
0.819	0.487
0.821	0.46
0.822	0.432
0.824	0.405
0.826	0.379
0.827	0.353
0.829	0.328
0.83	0.305
0.832	0.282
0.834	0.261
0.835	0.241
0.837	0.222
0.838	0.204
0.84	0.188
0.842	0.173
0.843	0.158
0.845	0.145
0.846	0.134
0.848	0.123
0.85	0.112
0.851	0.103
0.853	0.095
0.854	0.087
0.856	0.08
0.858	0.074
0.859	0.068
0.861	0.062
0.862	0.058
0.864	0.053
0.866	0.049
0.867	0.046
0.869	0.043
0.87	0.04
0.872	0.037
0.874	0.035
0.875	0.033
0.877	0.031
0.878	0.029
0.88	0.028
0.882	0.027
0.883	0.026
0.885	0.025
0.886	0.024
0.888	0.023
0.89	0.023
0.891	0.022
0.893	0.021
0.894	0.021
0.896	0.02
0.898	0.02
0.899	0.019
0.901	0.019
0.902	0.018
0.904	0.018
0.906	0.017
0.907	0.017
0.909	0.016
0.91	0.016
0.912	0.015
0.914	0.015
0.915	0.014
0.917	0.014
0.918	0.013
0.92	0.013
0.922	0.013
0.923	0.012
0.925	0.012
0.926	0.012
0.928	0.011
0.93	0.011
0.931	0.01
0.933	0.01
0.934	0.01
0.936	0.009
0.938	0.009
0.939	0.009
0.941	0.009
0.942	0.008
0.944	0.008
0.946	0.008
0.947	0.007
0.949	0.007
0.95	0.007
0.952	0.007
0.954	0.007
0.955	0.006
0.957	0.006
0.958	0.006
0.96	0.006
0.962	0.006
0.963	0.005
0.965	0.005
0.966	0.005
0.968	0.005
0.97	0.005
0.971	0.005
0.973	0.004
0.974	0.004
0.976	0.004
0.978	0.004
0.979	0.004
0.981	0.004
0.982	0.004
0.984	0.003
0.986	0.003
0.987	0.003
0.989	0.003
0.99	0.003
0.992	0.003
0.994	0.003
0.995	0.003
0.997	0.003
0.998	0.002
1	0.002
