# Wavelength(Î¼m) Extinction_cofficient
0.0298	0.17452
0.03006	0.17759
0.03033	0.18001
0.03059	0.18171
0.03086	0.18266
0.03113	0.18281
0.03141	0.18213
0.03168	0.18057
0.03196	0.17808
0.03224	0.17462
0.03253	0.17011
0.03281	0.16448
0.0331	0.15761
0.03339	0.14935
0.03369	0.13949
0.03398	0.12766
0.03428	0.11325
0.03459	0.09492
0.03489	0.06979
0.0352	0.04797
0.03551	0.0338
0.03582	0.02362
0.03613	0.01776
0.03645	0.01677
0.03677	0.02043
0.0371	0.02824
0.03742	0.03968
0.03775	0.05429
0.03809	0.07163
0.03842	0.09137
0.03876	0.11325
0.0391	0.13703
0.03944	0.16259
0.03979	0.18982
0.04014	0.21868
0.04049	0.24919
0.04085	0.28143
0.04121	0.31554
0.04157	0.35176
0.04194	0.39049
0.04231	0.43239
0.04268	0.47863
0.04306	0.52792
0.04343	0.57809
0.04382	0.62763
0.0442	0.67523
0.04459	0.71944
0.04498	0.75826
0.04538	0.78905
0.04578	0.81024
0.04618	0.82192
0.04659	0.82308
0.047	0.81232
0.04741	0.78836
0.04783	0.75417
0.04825	0.71831
0.04868	0.68633
0.0491	0.66096
0.04954	0.64385
0.04997	0.63594
0.05041	0.63786
0.05086	0.64649
0.0513	0.65551
0.05175	0.66248
0.05221	0.6669
0.05267	0.66839
0.05313	0.66725
0.0536	0.66576
0.05407	0.66451
0.05455	0.66359
0.05503	0.66299
0.05551	0.66265
0.056	0.662
0.05649	0.65807
0.05699	0.64879
0.05749	0.6339
0.058	0.61333
0.05851	0.5873
0.05903	0.55671
0.05954	0.52508
0.06007	0.49652
0.0606	0.47174
0.06113	0.4505
0.06167	0.43252
0.06221	0.41736
0.06276	0.40426
0.06331	0.39004
0.06387	0.37159
0.06443	0.3489
0.065	0.32278
0.06557	0.2941
0.06615	0.26409
0.06673	0.23522
0.06732	0.21863
0.06791	0.21668
0.06851	0.22741
0.06911	0.24909
0.06972	0.27963
0.07033	0.31397
0.07095	0.34017
0.07157	0.35656
0.0722	0.36405
0.07284	0.36328
0.07348	0.36181
0.07413	0.36914
0.07478	0.38215
0.07544	0.39708
0.0761	0.41333
0.07677	0.43037
0.07745	0.44786
0.07813	0.46934
0.07882	0.49728
0.07951	0.53184
0.08021	0.57311
0.08092	0.62213
0.08163	0.67527
0.08235	0.72166
0.08307	0.77235
0.0838	0.82143
0.08454	0.86498
0.08529	0.9084
0.08604	0.95205
0.08679	0.99286
0.08756	1.02402
0.08833	1.04337
0.0891	1.08161
0.08989	1.11612
0.09068	1.12997
0.09148	1.17433
0.09228	1.22901
0.0931	1.26057
0.09391	1.27207
0.09474	1.28234
0.09558	1.30591
0.09642	1.33582
0.09727	1.36441
0.09812	1.39265
0.09898	1.4246
0.09986	1.46191
0.10073	1.49126
0.10162	1.50264
0.10252	1.5451
0.10342	1.61349
0.10433	1.65904
0.10525	1.67961
0.10617	1.68942
0.10711	1.68959
0.10805	1.68002
0.109	1.66072
0.10996	1.63296
0.11093	1.60179
0.1119	1.53224
0.11289	1.37871
0.11388	1.12189
0.11488	0.80213
0.1159	0.48231
0.11692	0.17042
0.11795	0.1061
0.11898	0.06137
0.12003	0.04652
0.12109	0.03762
0.12215	0.03134
0.12323	0.02766
0.12431	0.024
0.12541	0.02245
0.12651	0.0213
0.12762	0.02015
0.12875	0.01914
0.12988	0.01842
0.13102	0.01739
0.13218	0.01601
0.13334	0.01605
0.13451	0.0161
0.1357	0.01615
0.13689	0.01619
0.1381	0.01624
0.13931	0.01578
0.14054	0.01497
0.14178	0.01416
0.14302	0.01344
0.14428	0.01297
0.14555	0.01251
0.14683	0.01205
0.14813	0.01153
0.14943	0.01101
0.15074	0.01078
0.15207	0.01043
0.15341	0.00967
0.15476	0.00893
0.15612	0.00832
0.1575	0.00772
0.15888	0.00712
0.16028	0.00659
0.16169	0.00626
0.16311	0.00593
0.16455	0.0061
0.166	0.00677
0.16746	0.00808
0.16893	0.00853
0.17042	0.00897
0.17192	0.00917
0.17343	0.00872
0.17496	0.00827
0.1765	0.0101
0.17805	0.01128
0.17962	0.00975
0.1812	0.01039
0.18279	0.011
0.1844	0.01161
0.18603	0.01222
0.18766	0.01309
0.18931	0.014
0.19098	0.01474
0.19266	0.01485
0.19436	0.01501
0.19607	0.01524
0.19779	0.01556
0.19953	0.01601
0.20129	0.01663
0.20306	0.01752
0.20485	0.01879
0.20665	0.0207
0.20847	0.02368
0.21031	0.02859
0.21216	0.03706
0.21402	0.05089
0.21591	0.06524
0.21781	0.06365
0.21973	0.05113
0.22166	0.04266
0.22361	0.04042
0.22558	0.04371
0.22756	0.05329
0.22957	0.06972
0.23159	0.08302
0.23363	0.07828
0.23568	0.06924
0.23776	0.06856
0.23985	0.0771
0.24196	0.09366
0.24409	0.11386
0.24624	0.12567
0.2484	0.11814
0.25059	0.09692
0.2528	0.0748
0.25502	0.05754
0.25727	0.04529
0.25953	0.03669
0.26181	0.03061
0.26412	0.02618
0.26644	0.02288
0.26879	0.02037
0.27115	0.0184
0.27354	0.01683
0.27595	0.01556
0.27838	0.01451
0.28083	0.01363
0.2833	0.01289
0.28579	0.01225
0.28831	0.0117
0.29085	0.01121
0.2934	0.01078
0.29599	0.0104
0.29859	0.01005
0.30122	0.00974
0.30387	0.00946
0.30654	0.0092
0.30924	0.00896
0.31196	0.00874
0.31471	0.00854
0.31748	0.00835
0.32027	0.00817
0.32309	0.008
0.32594	0.00784
0.32881	0.0077
0.3317	0.00756
0.33462	0.00742
0.33756	0.00729
0.34053	0.00717
0.34353	0.00705
0.34656	0.00694
0.34961	0.00683
0.35268	0.00673
0.35579	0.00663
0.35892	0.00653
0.36208	0.00644
0.36526	0.00635
0.36848	0.00626
0.37172	0.00618
0.37499	0.00609
0.37829	0.00601
0.38162	0.00594
0.38498	0.00586
0.38837	0.00579
0.39179	0.00571
0.39524	0.00564
0.39872	0.00557
0.40222	0.00551
0.40576	0.00544
0.40934	0.00538
0.41294	0.00531
0.41657	0.00525
0.42024	0.00519
0.42394	0.00513
0.42767	0.00507
0.43143	0.00502
0.43523	0.00496
0.43906	0.0049
0.44293	0.00485
0.44682	0.0048
0.45076	0.00475
0.45472	0.00469
0.45873	0.00464
0.46276	0.00459
0.46684	0.00455
0.47095	0.0045
0.47509	0.00445
0.47927	0.0044
0.48349	0.00436
0.48774	0.00431
0.49204	0.00427
0.49637	0.00422
0.50074	0.00418
0.50514	0.00414
0.50959	0.00409
0.51408	0.00405
0.5186	0.00401
0.52316	0.00397
0.52777	0.00393
0.53241	0.00389
0.5371	0.00385
0.54183	0.00382
0.5466	0.00378
0.55141	0.00374
0.55626	0.0037
0.56116	0.00367
0.5661	0.00363
0.57108	0.0036
0.5761	0.00356
0.58117	0.00353
0.58629	0.00349
0.59145	0.00346
0.59665	0.00343
0.60191	0.00339
0.6072	0.00336
0.61255	0.00333
0.61794	0.0033
0.62338	0.00326
0.62886	0.00323
0.6344	0.0032
0.63998	0.00317
0.64562	0.00314
0.6513	0.00311
0.65703	0.00308
0.66281	0.00305
0.66864	0.00302
0.67453	0.003
0.68047	0.00297
0.68646	0.00294
0.6925	0.00291
0.69859	0.00289
0.70474	0.00286
0.71094	0.00283
0.7172	0.00281
0.72351	0.00278
0.72988	0.00275
0.7363	0.00273
0.74279	0.0027
0.74932	0.00268
0.75592	0.00265
0.76257	0.00263
0.76928	0.0026
0.77605	0.00258
0.78288	0.00256
0.78977	0.00253
0.79673	0.00251
0.80374	0.00249
0.81081	0.00246
0.81795	0.00244
0.82515	0.00242
0.83241	0.0024
0.83973	0.00237
0.84713	0.00235
0.85458	0.00233
0.8621	0.00231
0.86969	0.00229
0.87735	0.00227
0.88507	0.00225
0.89286	0.00223
0.90071	0.00221
0.90864	0.00219
0.91664	0.00217
0.92471	0.00215
0.93285	0.00213
0.94106	0.00211
0.94934	0.00209
0.95769	0.00207
0.96612	0.00205
0.97463	0.00203
0.9832	0.00202
0.99186	0.002
1.00059	0.00198
1.00939	0.00196
1.01828	0.00194
1.02724	0.00193
1.03628	0.00191
1.0454	0.00189
1.0546	0.00187
1.06388	0.00186
1.07325	0.00184
1.08269	0.00183
1.09222	0.00181
1.10184	0.00179
1.11153	0.00178
1.12132	0.00176
1.13119	0.00175
1.14114	0.00173
1.15118	0.00171
1.16132	0.0017
1.17154	0.00168
1.18185	0.00167
1.19225	0.00165
1.20274	0.00164
1.21333	0.00162
1.22401	0.00161
1.23478	0.0016
1.24565	0.00158
1.25661	0.00157
1.26767	0.00155
1.27883	0.00154
1.29008	0.00153
1.30144	0.00151
1.31289	0.0015
1.32445	0.00149
1.33611	0.00147
1.34786	0.00146
1.35973	0.00145
1.3717	0.00143
1.38377	0.00142
1.39595	0.00141
1.40823	0.0014
1.42063	0.00138
1.43313	0.00137
1.44574	0.00136
1.45847	0.00135
1.4713	0.00134
1.48425	0.00132
1.49732	0.00131
1.5105	0.0013
1.52379	0.00129
1.5372	0.00128
1.55073	0.00127
1.56438	0.00126
1.57815	0.00124
1.59204	0.00123
1.60605	0.00122
1.62018	0.00121
1.63444	0.0012
1.64883	0.00119
1.66334	0.00118
1.67798	0.00117
1.69275	0.00116
1.70765	0.00115
1.72268	0.00114
1.73784	0.00113
1.75313	0.00112
1.76856	0.00111
1.78413	0.0011
1.79983	0.00109
1.81567	0.00108
1.83165	0.00107
1.84777	0.00106
1.86404	0.00105
1.88044	0.00104
1.89699	0.00103
1.91369	0.00102
1.93053	0.00102
1.94752	0.00101
1.96466	9.97E-4
1.98196	9.88E-4
1.9994	9.79E-4
2.017	9.71E-4